File: src/zuy/data/19.msa
#FORMAT      : EMSA/MAS Spectral Data File
#VERSION     : 1.0
#TITLE       : 19
#DATE        : 02-FEB-2022
#TIME        : 16:21
#OWNER       :
#NPOINTS     : 2048.0
#NCOLUMNS    : 1.0
#XUNITS      : keV
#YUNITS      : counts
#DATATYPE    : XY
#XPERCHAN    : 0.01
#OFFSET      : -0.2
#SIGNALTYPE  : EDS_SEM
#CHOFFSET    : 20.0
#LIVETIME    : 20.0
#REALTIME    : 23.9437
#BEAMKV      : 20.0
#PROBECUR    : 1.386081
#MAGCAM      : 299.0
#XTILTSTGE   : 0.0
#AZIMANGLE   : 0.0
#ELEVANGLE   : 35.0
#XPOSITION mm: -10.3467
#YPOSITION mm: -9.5703
#ZPOSITION mm: 12.0498
##OXINSTPT   : 5
##OXINSTSTROB: 37.22
##OXINSTNDET : 1
##OXINSTELEMS: 6,8,16,20
##OXINSTLABEL: 6, 0.277, C K?1,2
##OXINSTLABEL: 8, 0.525, O K?1
##OXINSTLABEL: 16, 2.308, S K?1
##OXINSTLABEL: 16, 2.464, S K?1
##OXINSTLABEL: 20, 0.303, Ca Ll
##OXINSTLABEL: 20, 3.692, Ca K?1
##OXINSTLABEL: 20, 4.013, Ca K?1
##OXINSTLABEL: 20, 0.345, Ca L?1
#SPECTRUM    : Spectral Data Starts Here
-0.20000, 0.0
-0.13000, 0.0
-0.06000, 1.0
0.01000, 727.0
0.08000, 154.0
0.15000, 152.0
0.22000, 1050.0
0.29000, 3348.0
0.36000, 142.0
0.43000, 205.0
0.50000, 5187.0
0.57000, 931.0
0.64000, 121.0
0.71000, 138.0
0.78000, 173.0
0.85000, 219.0
0.92000, 265.0
0.99000, 337.0
1.06000, 322.0
1.13000, 323.0
1.20000, 352.0
1.27000, 450.0
1.34000, 333.0
1.41000, 378.0
1.48000, 484.0
1.55000, 423.0
1.62000, 420.0
1.69000, 437.0
1.76000, 529.0
1.83000, 462.0
1.90000, 482.0
1.97000, 628.0
2.04000, 407.0
2.11000, 390.0
2.18000, 379.0
2.25000, 484.0
2.32000, 626.0
2.39000, 401.0
2.46000, 370.0
2.53000, 366.0
2.60000, 336.0
2.67000, 354.0
2.74000, 322.0
2.81000, 346.0
2.88000, 337.0
2.95000, 302.0
3.02000, 316.0
3.09000, 296.0
3.16000, 292.0
3.23000, 287.0
3.30000, 314.0
3.37000, 299.0
3.44000, 272.0
3.51000, 443.0
3.58000, 1172.0
3.65000, 12572.0
3.72000, 18850.0
3.79000, 2346.0
3.86000, 313.0
3.93000, 700.0
4.00000, 2590.0
4.07000, 1496.0
4.14000, 273.0
4.21000, 173.0
4.28000, 161.0
4.35000, 175.0
4.42000, 215.0
4.49000, 244.0
4.56000, 153.0
4.63000, 151.0
4.70000, 156.0
4.77000, 169.0
4.84000, 184.0
4.91000, 161.0
4.98000, 162.0
5.05000, 133.0
5.12000, 149.0
5.19000, 148.0
5.26000, 142.0
5.33000, 124.0
5.40000, 129.0
5.47000, 126.0
5.54000, 114.0
5.61000, 108.0
5.68000, 134.0
5.75000, 121.0
5.82000, 105.0
5.89000, 114.0
5.96000, 107.0
6.03000, 112.0
6.10000, 133.0
6.17000, 118.0
6.24000, 98.0
6.31000, 94.0
6.38000, 95.0
6.45000, 95.0
6.52000, 104.0
6.59000, 87.0
6.66000, 90.0
6.73000, 106.0
6.80000, 97.0
6.87000, 92.0
6.94000, 106.0
7.01000, 85.0
7.08000, 89.0
7.15000, 75.0
7.22000, 86.0
7.29000, 99.0
7.36000, 134.0
7.43000, 129.0
7.50000, 75.0
7.57000, 101.0
7.64000, 79.0
7.71000, 82.0
7.78000, 70.0
7.85000, 76.0
7.92000, 75.0
7.99000, 84.0
8.06000, 83.0
8.13000, 69.0
8.20000, 70.0
8.27000, 60.0
8.34000, 69.0
8.41000, 58.0
8.48000, 73.0
8.55000, 71.0
8.62000, 74.0
8.69000, 77.0
8.76000, 58.0
8.83000, 50.0
8.90000, 57.0
8.97000, 45.0
9.04000, 62.0
9.11000, 45.0
9.18000, 47.0
9.25000, 46.0
9.32000, 58.0
9.39000, 40.0
9.46000, 50.0
9.53000, 51.0
9.60000, 42.0
9.67000, 48.0
9.74000, 37.0
9.81000, 50.0
9.88000, 50.0
9.95000, 42.0
10.02000, 54.0
10.09000, 46.0
10.16000, 37.0
10.23000, 36.0
10.30000, 37.0
10.37000, 45.0
10.44000, 32.0
10.51000, 39.0
10.58000, 34.0
10.65000, 40.0
10.72000, 30.0
10.79000, 20.0
10.86000, 27.0
10.93000, 38.0
11.00000, 42.0
11.07000, 28.0
11.14000, 26.0
11.21000, 39.0
11.28000, 37.0
11.35000, 36.0
11.42000, 27.0
11.49000, 29.0
11.56000, 28.0
11.63000, 35.0
11.70000, 27.0
11.77000, 34.0
11.84000, 28.0
11.91000, 25.0
11.98000, 24.0
12.05000, 30.0
12.12000, 29.0
12.19000, 31.0
12.26000, 23.0
12.33000, 21.0
12.40000, 23.0
12.47000, 20.0
12.54000, 18.0
12.61000, 12.0
12.68000, 18.0
12.75000, 21.0
12.82000, 17.0
12.89000, 24.0
12.96000, 20.0
13.03000, 18.0
13.10000, 19.0
13.17000, 8.0
13.24000, 17.0
13.31000, 14.0
13.38000, 10.0
13.45000, 21.0
13.52000, 20.0
13.59000, 15.0
13.66000, 13.0
13.73000, 13.0
13.80000, 17.0
13.87000, 18.0
13.94000, 17.0
14.01000, 10.0
14.08000, 9.0
14.15000, 13.0
14.22000, 11.0
14.29000, 11.0
14.36000, 13.0
14.43000, 12.0
14.50000, 15.0
14.57000, 13.0
14.64000, 8.0
14.71000, 11.0
14.78000, 7.0
14.85000, 10.0
14.92000, 8.0
14.99000, 9.0
15.06000, 16.0
15.13000, 5.0
15.20000, 4.0
15.27000, 11.0
15.34000, 3.0
15.41000, 10.0
15.48000, 10.0
15.55000, 5.0
15.62000, 9.0
15.69000, 5.0
15.76000, 5.0
15.83000, 6.0
15.90000, 8.0
15.97000, 8.0
16.04000, 9.0
16.11000, 7.0
16.18000, 5.0
16.25000, 6.0
16.32000, 3.0
16.39000, 4.0
16.46000, 8.0
16.53000, 3.0
16.60000, 5.0
16.67000, 7.0
16.74000, 6.0
16.81000, 3.0
16.88000, 3.0
16.95000, 3.0
17.02000, 3.0
17.09000, 3.0
17.16000, 3.0
17.23000, 3.0
17.30000, 2.0
17.37000, 5.0
17.44000, 4.0
17.51000, 4.0
17.58000, 5.0
17.65000, 2.0
17.72000, 1.0
17.79000, 2.0
17.86000, 2.0
17.93000, 3.0
18.00000, 2.0
18.07000, 1.0
18.14000, 1.0
18.21000, 2.0
18.28000, 1.0
18.35000, 1.0
18.42000, 1.0
18.49000, 0.0
18.56000, 0.0
18.63000, 2.0
18.70000, 1.0
18.77000, 2.0
18.84000, 0.0
18.91000, 0.0
18.98000, 1.0
19.05000, 1.0
19.12000, 1.0
19.19000, 1.0
19.26000, 0.0
19.33000, 1.0
19.40000, 1.0
19.47000, 1.0
19.54000, 0.0
19.61000, 0.0
19.68000, 0.0
19.75000, 0.0
19.82000, 0.0
19.89000, 0.0
19.96000, 0.0
20.03000, 0.0
20.10000, 0.0
20.17000, 0.0
20.24000, 0.0
20.27000, 0.0
#ENDOFDATA   :